MFC-3045 Multiple measurements file: 6009map1.dam (WMFCTOOL v9.0)
=================================================================



2013-12-20  14:06:46 -> meas. 1/33 
-------------------------------------

Measurement parameters (Pr/NCY/MCF/MDA/Period) : 
32	80	638003449	900	60	
Mean value:
63.8020554	Mhz
1.49853612	T
Max value:	at probe #:
63.8102570	9
Min value:	at probe #:
63.7904797	32
diff max-min:	ppm of mean value
310.0


	      NMR f. [MHz]	       RMS [Hz]	   Valid cycles

  1	   63.8020238	          1.8	           80 
  2	   63.8028369	          1.2	           80 
  3	   63.8038582	          1.2	           80 
  4	   63.8047657	          1.2	           80 
  5	   63.8055668	          1.8	           80 
  6	   63.8065496	          1.8	           80 
  7	   63.8079239	          1.8	           80 
  8	   63.8094054	          1.8	           80 
  9	   63.8102570	          1.2	           80 
 10	   63.8099250	          3.6	           80 
 11	   63.8087498	          2.4	           80 
 12	   63.8074441	          2.4	           80 
 13	   63.8063203	          1.2	           80 
 14	   63.8050235	          1.2	           80 
 15	   63.8033360	          2.4	           80 
 16	   63.8018301	          1.8	           80 
 17	   63.8011940	          1.2	           80 
 18	   63.8014067	          1.2	           80 
 19	   63.8017204	          1.8	           80 
 20	   63.8015941	          1.8	           80 
 21	   63.8013632	          1.2	           80 
 22	   63.8015334	          1.2	           80 
 23	   63.8017914	          1.8	           80 
 24	   63.8013339	          1.8	           80 
 25	   63.7998933	          1.8	           80 
 26	   63.7979788	          1.8	           80 
 27	   63.7962674	          1.2	           80 
 28	   63.7950220	          2.4	           80 
 29	   63.7939874	          1.8	           80 
 30	   63.7928339	          1.8	           80 
 31	   63.7915585	          1.8	           80 
 32	   63.7904797	          1.8	           80 


2013-12-20  14:07:01 -> meas. 2/33 
-------------------------------------

Measurement parameters (Pr/NCY/MCF/MDA/Period) : 
32	80	638003449	900	60	
Mean value:
63.8019536	Mhz
1.49853373	T
Max value:	at probe #:
63.8102417	9
Min value:	at probe #:
63.7904434	32
diff max-min:	ppm of mean value
310.3


	      NMR f. [MHz]	       RMS [Hz]	   Valid cycles

  1	   63.8020502	          2.4	           80 
  2	   63.8028903	          1.2	           80 
  3	   63.8039320	          1.2	           80 
  4	   63.8048524	          1.8	           80 
  5	   63.8056522	          2.4	           80 
  6	   63.8066221	          2.4	           80 
  7	   63.8079707	          2.4	           80 
  8	   63.8094214	          1.8	           80 
  9	   63.8102417	          1.2	           80 
 10	   63.8098776	          3.0	           80 
 11	   63.8086736	          2.4	           80 
 12	   63.8073489	          3.0	           80 
 13	   63.8062256	          1.2	           80 
 14	   63.8049528	          1.2	           80 
 15	   63.8032923	          1.8	           80 
 16	   63.8017994	          1.8	           80 
 17	   63.8011393	          1.2	           80 
 18	   63.8012955	          1.2	           80 
 19	   63.8015378	          6.7	           80 
 20	   63.8013439	          1.8	           80 
 21	   63.8010651	          1.2	           80 
 22	   63.8012107	          1.2	           80 
 23	   63.8014638	          1.2	           80 
 24	   63.8010241	          1.8	           80 
 25	   63.7996074	          1.8	           80 
 26	   63.7977200	          1.8	           80 
 27	   63.7960357	          1.8	           80 
 28	   63.7948204	          1.8	           80 
 29	   63.7938202	          1.8	           80 
 30	   63.7927079	          1.2	           80 
 31	   63.7914762	          1.8	           80 
 32	   63.7904434	          3.0	           80 


2013-12-20  14:18:08 -> meas. 3/33 
-------------------------------------

Measurement parameters (Pr/NCY/MCF/MDA/Period) : 
32	80	638003449	900	60	
Mean value:
63.8015573	Mhz
1.49852442	T
Max value:	at probe #:
63.8100136	9
Min value:	at probe #:
63.7903777	32
diff max-min:	ppm of mean value
307.8


	      NMR f. [MHz]	       RMS [Hz]	   Valid cycles

  1	   63.8020693	          2.4	           80 
  2	   63.8029291	          1.2	           80 
  3	   63.8039775	          1.2	           80 
  4	   63.8048960	          1.2	           80 
  5	   63.8056780	          1.8	           80 
  6	   63.8066110	          2.4	           80 
  7	   63.8079037	          2.4	           80 
  8	   63.8092819	          1.8	           80 
  9	   63.8100136	          1.2	           80 
 10	   63.8095439	          3.6	           80 
 11	   63.8082409	          2.4	           80 
 12	   63.8068055	          3.0	           80 
 13	   63.8056017	          1.8	           80 
 14	   63.8042711	          1.2	           80 
 15	   63.8025811	          1.8	           80 
 16	   63.8010649	          1.8	           80 
 17	   63.8003826	          1.2	           80 
 18	   63.8005019	          1.2	           80 
 19	   63.8007123	          2.4	           80 
 20	   63.8005178	          1.8	           80 
 21	   63.8002648	          1.2	           80 
 22	   63.8004657	          1.2	           80 
 23	   63.8007889	          1.8	           80 
 24	   63.8004285	          1.2	           80 
 25	   63.7990837	          1.8	           80 
 26	   63.7972664	          1.8	           80 
 27	   63.7956485	          1.2	           80 
 28	   63.7944989	          1.8	           80 
 29	   63.7935633	          1.2	           80 
 30	   63.7925161	          1.8	           80 
 31	   63.7913483	          2.4	           80 
 32	   63.7903777	          2.4	           80 


2013-12-20  14:07:28 -> meas. 4/33 
-------------------------------------

Measurement parameters (Pr/NCY/MCF/MDA/Period) : 
32	80	638003449	900	60	
Mean value:
63.8010301	Mhz
1.49851204	T
Max value:	at probe #:
63.8096946	9
Min value:	at probe #:
63.7903365	32
diff max-min:	ppm of mean value
303.4


	      NMR f. [MHz]	       RMS [Hz]	   Valid cycles

  1	   63.8020908	          2.4	           80 
  2	   63.8029641	          1.2	           80 
  3	   63.8040174	          1.2	           80 
  4	   63.8049243	          1.2	           80 
  5	   63.8056756	          2.4	           80 
  6	   63.8065563	          1.8	           80 
  7	   63.8077764	          1.8	           80 
  8	   63.8090686	          1.8	           80 
  9	   63.8096946	          1.2	           80 
 10	   63.8091031	          3.0	           80 
 11	   63.8076735	          1.8	           80 
 12	   63.8060943	          1.8	           80 
 13	   63.8047762	          1.2	           80 
 14	   63.8033590	          1.2	           80 
 15	   63.8016063	          1.8	           80 
 16	   63.8000531	          1.8	           80 
 17	   63.7993204	          1.2	           80 
 18	   63.7994004	          1.2	           80 
 19	   63.7995973	          1.8	           80 
 20	   63.7994194	          1.8	           80 
 21	   63.7992149	          1.2	           80 
 22	   63.7994877	          1.2	           80 
 23	   63.7999044	          1.2	           80 
 24	   63.7996485	          1.2	           80 
 25	   63.7984064	          1.8	           80 
 26	   63.7966923	          1.2	           80 
 27	   63.7951733	          1.2	           80 
 28	   63.7941178	          1.8	           80 
 29	   63.7932719	          1.2	           80 
 30	   63.7923114	          1.8	           80 
 31	   63.7912284	          1.8	           80 
 32	   63.7903365	          2.4	           80 


2013-12-20  14:07:40 -> meas. 5/33 
-------------------------------------

Measurement parameters (Pr/NCY/MCF/MDA/Period) : 
32	80	638003449	900	60	
Mean value:
63.8004487	Mhz
1.49849839	T
Max value:	at probe #:
63.8093074	9
Min value:	at probe #:
63.7902707	32
diff max-min:	ppm of mean value
298.4


	      NMR f. [MHz]	       RMS [Hz]	   Valid cycles

  1	   63.8021043	          2.4	           80 
  2	   63.8029850	          1.2	           80 
  3	   63.8040346	          1.2	           80 
  4	   63.8049237	          1.2	           80 
  5	   63.8056375	          2.4	           80 
  6	   63.8064531	          2.4	           80 
  7	   63.8075902	          2.4	           80 
  8	   63.8087877	          1.8	           80 
  9	   63.8093074	          1.8	           80 
 10	   63.8086071	          3.0	           80 
 11	   63.8070693	          3.6	           80 
 12	   63.8053795	          1.8	           80 
 13	   63.8039507	          1.2	           80 
 14	   63.8024499	          1.2	           80 
 15	   63.8006369	          1.8	           80 
 16	   63.7990260	          1.8	           80 
 17	   63.7982380	          1.2	           80 
 18	   63.7982694	          1.2	           80 
 19	   63.7984362	          1.8	           80 
 20	   63.7982589	          1.8	           80 
 21	   63.7980802	          1.2	           80 
 22	   63.7983979	          1.2	           80 
 23	   63.7988822	          1.8	           80 
 24	   63.7987185	          1.2	           80 
 25	   63.7975827	          1.8	           80 
 26	   63.7959835	          1.2	           80 
 27	   63.7945875	          1.2	           80 
 28	   63.7936500	          1.8	           80 
 29	   63.7929197	          1.2	           80 
 30	   63.7920631	          1.2	           80 
 31	   63.7910766	          2.4	           80 
 32	   63.7902707	          1.8	           80 


2013-12-20  14:07:53 -> meas. 6/33 
-------------------------------------

Measurement parameters (Pr/NCY/MCF/MDA/Period) : 
32	80	638003449	900	60	
Mean value:
63.7998895	Mhz
1.49848525	T
Max value:	at probe #:
63.8089171	9
Min value:	at probe #:
63.7902062	32
diff max-min:	ppm of mean value
293.3


	      NMR f. [MHz]	       RMS [Hz]	   Valid cycles

  1	   63.8021123	          1.8	           80 
  2	   63.8029973	          1.2	           80 
  3	   63.8040414	          1.8	           80 
  4	   63.8049095	          1.2	           80 
  5	   63.8055821	          1.8	           80 
  6	   63.8063289	          1.8	           80 
  7	   63.8073800	          2.4	           80 
  8	   63.8084884	          1.8	           80 
  9	   63.8089171	          1.8	           80 
 10	   63.8081418	          3.6	           80 
 11	   63.8065247	          1.8	           80 
 12	   63.8047593	          1.2	           80 
 13	   63.8032531	          1.2	           80 
 14	   63.8016785	          1.2	           80 
 15	   63.7998071	          1.8	           80 
 16	   63.7981298	          1.8	           80 
 17	   63.7972791	          1.2	           80 
 18	   63.7972534	          1.2	           80 
 19	   63.7973796	          1.8	           80 
 20	   63.7971765	          1.8	           80 
 21	   63.7969855	          1.2	           80 
 22	   63.7973069	          1.2	           80 
 23	   63.7978218	          2.4	           80 
 24	   63.7977246	          1.2	           80 
 25	   63.7966865	          1.2	           80 
 26	   63.7952134	          1.2	           80 
 27	   63.7939514	          1.2	           80 
 28	   63.7931521	          1.8	           80 
 29	   63.7925466	          1.8	           80 
 30	   63.7918056	          1.8	           80 
 31	   63.7909229	          1.8	           80 
 32	   63.7902062	          2.4	           80 


2013-12-20  14:08:06 -> meas. 7/33 
-------------------------------------

Measurement parameters (Pr/NCY/MCF/MDA/Period) : 
32	80	638003449	900	60	
Mean value:
63.7993247	Mhz
1.49847199	T
Max value:	at probe #:
63.8085304	9
Min value:	at probe #:
63.7901343	32
diff max-min:	ppm of mean value
288.3


	      NMR f. [MHz]	       RMS [Hz]	   Valid cycles

  1	   63.8021178	          1.8	           80 
  2	   63.8030047	          1.2	           80 
  3	   63.8040432	          1.8	           80 
  4	   63.8048936	          1.2	           80 
  5	   63.8055262	          1.8	           80 
  6	   63.8062072	          1.2	           80 
  7	   63.8071716	          2.4	           80 
  8	   63.8081890	          1.8	           80 
  9	   63.8085304	          1.8	           80 
 10	   63.8076845	          3.6	           80 
 11	   63.8060022	          1.8	           80 
 12	   63.8041686	          1.2	           80 
 13	   63.8025800	          1.2	           80 
 14	   63.8009212	          1.2	           80 
 15	   63.7989712	          1.8	           80 
 16	   63.7972219	          1.8	           80 
 17	   63.7963049	          1.2	           80 
 18	   63.7962275	          1.2	           80 
 19	   63.7963150	          1.8	           80 
 20	   63.7960928	          1.8	           80 
 21	   63.7958944	          1.2	           80 
 22	   63.7962103	          1.2	           80 
 23	   63.7967400	          1.2	           80 
 24	   63.7966937	          1.2	           80 
 25	   63.7957504	          1.2	           80 
 26	   63.7944051	          1.8	           80 
 27	   63.7932912	          1.2	           80 
 28	   63.7926370	          2.4	           80 
 29	   63.7921624	          1.8	           80 
 30	   63.7915388	          1.8	           80 
 31	   63.7907601	          1.8	           80 
 32	   63.7901343	          2.4	           80 


2013-12-20  14:08:21 -> meas. 8/33 
-------------------------------------

Measurement parameters (Pr/NCY/MCF/MDA/Period) : 
32	80	638003449	900	60	
Mean value:
63.7987595	Mhz
1.49845871	T
Max value:	at probe #:
63.8081825	9
Min value:	at probe #:
63.7900697	32
diff max-min:	ppm of mean value
283.9


	      NMR f. [MHz]	       RMS [Hz]	   Valid cycles

  1	   63.8021166	          1.8	           80 
  2	   63.8030047	          1.8	           80 
  3	   63.8040420	          1.8	           80 
  4	   63.8048807	          1.8	           80 
  5	   63.8054844	          1.8	           80 
  6	   63.8061119	          1.8	           80 
  7	   63.8070001	          2.4	           80 
  8	   63.8079321	          1.8	           80 
  9	   63.8081825	          1.2	           80 
 10	   63.8072499	          3.6	           80 
 11	   63.8054877	          1.8	           80 
 12	   63.8035385	          1.8	           80 
 13	   63.8018264	          1.2	           80 
 14	   63.8000514	          1.2	           80 
 15	   63.7979932	          2.4	           80 
 16	   63.7961536	          1.8	           80 
 17	   63.7951855	          1.8	           80 
 18	   63.7950830	          1.2	           80 
 19	   63.7951797	          1.8	           80 
 20	   63.7949852	          1.2	           80 
 21	   63.7948194	          1.2	           80 
 22	   63.7951690	          1.2	           80 
 23	   63.7957393	          1.2	           80 
 24	   63.7957650	          1.2	           80 
 25	   63.7949218	          1.2	           80 
 26	   63.7936927	          1.8	           80 
 27	   63.7927116	          1.2	           80 
 28	   63.7921834	          1.8	           80 
 29	   63.7918244	          1.8	           80 
 30	   63.7913015	          1.8	           80 
 31	   63.7906156	          1.8	           80 
 32	   63.7900697	          1.8	           80 


2013-12-20  14:17:46 -> meas. 9/33 
-------------------------------------

Measurement parameters (Pr/NCY/MCF/MDA/Period) : 
32	80	638003449	900	60	
Mean value:
63.7981278	Mhz
1.49844387	T
Max value:	at probe #:
63.8078426	9
Min value:	at probe #:
63.7900033	32
diff max-min:	ppm of mean value
279.6


	      NMR f. [MHz]	       RMS [Hz]	   Valid cycles

  1	   63.8021068	          2.4	           80 
  2	   63.8029942	          1.2	           80 
  3	   63.8040309	          8.6	           80 
  4	   63.8048677	          1.8	           80 
  5	   63.8054543	          1.8	           80 
  6	   63.8060400	          1.2	           80 
  7	   63.8068618	          3.0	           80 
  8	   63.8077034	          2.4	           80 
  9	   63.8078426	          1.8	           80 
 10	   63.8067797	          4.9	           80 
 11	   63.8048731	          2.4	           80 
 12	   63.8027431	          1.8	           80 
 13	   63.8008343	          1.2	           80 
 14	   63.7988731	          1.2	           80 
 15	   63.7966612	          1.8	           80 
 16	   63.7947294	          1.8	           80 
 17	   63.7937152	          1.2	           80 
 18	   63.7936354	          1.2	           80 
 19	   63.7938034	          2.4	           80 
 20	   63.7937140	          1.8	           80 
 21	   63.7936595	          1.2	           80 
 22	   63.7941130	          1.2	           80 
 23	   63.7947872	          1.2	           80 
 24	   63.7949173	          1.2	           80 
 25	   63.7941866	          1.2	           80 
 26	   63.7930737	          1.2	           80 
 27	   63.7922063	          1.2	           80 
 28	   63.7917857	          1.8	           80 
 29	   63.7915238	          1.8	           80 
 30	   63.7910882	          1.8	           80 
 31	   63.7904804	          1.8	           80 
 32	   63.7900033	          2.4	           80 


2013-12-20  14:08:47 -> meas. 10/33 
--------------------------------------

Measurement parameters (Pr/NCY/MCF/MDA/Period) : 
32	80	638003449	900	60	
Mean value:
63.7975073	Mhz
1.49842930	T
Max value:	at probe #:
63.8075537	9
Min value:	at probe #:
63.7899634	32
diff max-min:	ppm of mean value
275.7


	      NMR f. [MHz]	       RMS [Hz]	   Valid cycles

  1	   63.8021018	          2.4	           80 
  2	   63.8029887	          1.2	           80 
  3	   63.8040322	          1.8	           80 
  4	   63.8048727	          1.2	           80 
  5	   63.8054543	          1.8	           80 
  6	   63.8060142	          1.8	           80 
  7	   63.8067813	          2.4	           80 
  8	   63.8075375	          2.4	           80 
  9	   63.8075537	          1.8	           80 
 10	   63.8063279	          3.0	           80 
 11	   63.8042344	          2.4	           80 
 12	   63.8018648	          1.8	           80 
 13	   63.7997095	          1.2	           80 
 14	   63.7975159	          1.8	           80 
 15	   63.7951276	          1.8	           80 
 16	   63.7930944	          1.8	           80 
 17	   63.7920655	          1.2	           80 
 18	   63.7920459	          1.2	           80 
 19	   63.7923442	          1.8	           80 
 20	   63.7924250	          1.8	           80 
 21	   63.7925494	          1.2	           80 
 22	   63.7931640	          1.2	           80 
 23	   63.7939820	          1.8	           80 
 24	   63.7942449	          1.2	           80 
 25	   63.7936322	          1.2	           80 
 26	   63.7926244	          1.2	           80 
 27	   63.7918498	          1.2	           80 
 28	   63.7915048	          1.8	           80 
 29	   63.7913093	          1.2	           80 
 30	   63.7909340	          1.8	           80 
 31	   63.7903845	          1.8	           80 
 32	   63.7899634	          1.8	           80 


2013-12-20  14:09:01 -> meas. 11/33 
--------------------------------------

Measurement parameters (Pr/NCY/MCF/MDA/Period) : 
32	80	638003449	900	60	
Mean value:
63.7968815	Mhz
1.49841460	T
Max value:	at probe #:
63.8073949	8
Min value:	at probe #:
63.7899240	32
diff max-min:	ppm of mean value
273.9


	      NMR f. [MHz]	       RMS [Hz]	   Valid cycles

  1	   63.8020865	          2.4	           80 
  2	   63.8029696	          1.2	           80 
  3	   63.8040174	          1.2	           80 
  4	   63.8048671	          1.2	           80 
  5	   63.8054506	          2.4	           80 
  6	   63.8059964	          1.2	           80 
  7	   63.8067198	          2.4	           80 
  8	   63.8073949	          2.4	           80 
  9	   63.8072814	          2.4	           80 
 10	   63.8058779	          9.2	           80 
 11	   63.8035564	          1.8	           80 
 12	   63.8009071	          1.8	           80 
 13	   63.7984672	          1.2	           80 
 14	   63.7960081	          1.2	           80 
 15	   63.7934262	          1.8	           80 
 16	   63.7912916	          1.8	           80 
 17	   63.7902632	          1.2	           80 
 18	   63.7903383	          1.2	           80 
 19	   63.7908063	          1.8	           80 
 20	   63.7911047	          1.8	           80 
 21	   63.7914614	          1.2	           80 
 22	   63.7922874	          1.2	           80 
 23	   63.7932917	          1.8	           80 
 24	   63.7937095	          1.2	           80 
 25	   63.7932210	          1.2	           80 
 26	   63.7923023	          1.8	           80 
 27	   63.7915978	          1.2	           80 
 28	   63.7913050	          1.8	           80 
 29	   63.7911531	          1.2	           80 
 30	   63.7908178	          1.8	           80 
 31	   63.7903052	          1.2	           80 
 32	   63.7899240	          2.4	           80 


2013-12-20  14:09:16 -> meas. 12/33 
--------------------------------------

Measurement parameters (Pr/NCY/MCF/MDA/Period) : 
32	80	638003449	900	60	
Mean value:
63.7963553	Mhz
1.49840224	T
Max value:	at probe #:
63.8072670	8
Min value:	at probe #:
63.7886657	17
diff max-min:	ppm of mean value
291.6


	      NMR f. [MHz]	       RMS [Hz]	   Valid cycles

  1	   63.8020693	          2.4	           80 
  2	   63.8029420	          1.2	           80 
  3	   63.8039916	          1.2	           80 
  4	   63.8048475	          1.2	           80 
  5	   63.8054352	          1.8	           80 
  6	   63.8059712	          1.2	           80 
  7	   63.8066608	          1.8	           80 
  8	   63.8072670	          1.8	           80 
  9	   63.8070398	          2.4	           80 
 10	   63.8054839	          3.0	           80 
 11	   63.8029534	          1.8	           80 
 12	   63.8000558	          1.2	           80 
 13	   63.7973516	          1.2	           80 
 14	   63.7946577	          1.2	           80 
 15	   63.7919037	          1.8	           80 
 16	   63.7896885	          2.4	           80 
 17	   63.7886657	          1.2	           80 
 18	   63.7888434	          1.2	           80 
 19	   63.7894866	          1.8	           80 
 20	   63.7900002	          1.8	           80 
 21	   63.7905800	          1.2	           80 
 22	   63.7916113	          1.2	           80 
 23	   63.7927914	          1.2	           80 
 24	   63.7933499	          1.2	           80 
 25	   63.7929696	          1.8	           80 
 26	   63.7921209	          1.2	           80 
 27	   63.7914650	          1.2	           80 
 28	   63.7911993	          1.8	           80 
 29	   63.7910671	          1.8	           80 
 30	   63.7907483	          1.8	           80 
 31	   63.7902548	          1.8	           80 
 32	   63.7898964	          2.4	           80 


2013-12-20  14:09:28 -> meas. 13/33 
--------------------------------------

Measurement parameters (Pr/NCY/MCF/MDA/Period) : 
32	80	638003449	900	60	
Mean value:
63.7959653	Mhz
1.49839308	T
Max value:	at probe #:
63.8071176	8
Min value:	at probe #:
63.7874689	17
diff max-min:	ppm of mean value
308.0


	      NMR f. [MHz]	       RMS [Hz]	   Valid cycles

  1	   63.8020453	          2.4	           80 
  2	   63.8029020	          1.2	           80 
  3	   63.8039455	          1.8	           80 
  4	   63.8048001	          1.2	           80 
  5	   63.8053848	          1.8	           80 
  6	   63.8059085	          1.2	           80 
  7	   63.8065680	          1.8	           80 
  8	   63.8071176	          2.4	           80 
  9	   63.8068038	          2.4	           80 
 10	   63.8051311	          3.0	           80 
 11	   63.8024463	          1.8	           80 
 12	   63.7993643	          1.8	           80 
 13	   63.7964653	          1.2	           80 
 14	   63.7935955	          1.2	           80 
 15	   63.7907210	          2.4	           80 
 16	   63.7884573	          1.8	           80 
 17	   63.7874689	          1.8	           80 
 18	   63.7877481	          1.2	           80 
 19	   63.7885400	          1.8	           80 
 20	   63.7892361	          1.2	           80 
 21	   63.7899979	          1.2	           80 
 22	   63.7911890	          1.2	           80 
 23	   63.7924982	          1.8	           80 
 24	   63.7931594	          1.2	           80 
 25	   63.7928571	          1.2	           80 
 26	   63.7920582	          8.6	           80 
 27	   63.7914269	          0.6	           80 
 28	   63.7911753	          1.2	           80 
 29	   63.7910450	          1.2	           80 
 30	   63.7907231	          1.8	           80 
 31	   63.7902302	          1.8	           80 
 32	   63.7898804	          1.2	           80 


2013-12-20  14:09:42 -> meas. 14/33 
--------------------------------------

Measurement parameters (Pr/NCY/MCF/MDA/Period) : 
32	80	638003449	900	60	
Mean value:
63.7957576	Mhz
1.49838820	T
Max value:	at probe #:
63.8069283	8
Min value:	at probe #:
63.7868592	17
diff max-min:	ppm of mean value
314.6


	      NMR f. [MHz]	       RMS [Hz]	   Valid cycles

  1	   63.8020176	          2.4	           80 
  2	   63.8028516	          1.2	           80 
  3	   63.8038767	          1.2	           80 
  4	   63.8047184	          1.2	           80 
  5	   63.8052896	          1.8	           80 
  6	   63.8057929	          1.8	           80 
  7	   63.8064211	          1.8	           80 
  8	   63.8069283	          3.0	           80 
  9	   63.8065616	          1.8	           80 
 10	   63.8048275	          3.0	           80 
 11	   63.8020671	          1.8	           80 
 12	   63.7988984	          1.8	           80 
 13	   63.7959077	          1.2	           80 
 14	   63.7929618	          1.2	           80 
 15	   63.7900492	          1.8	           80 
 16	   63.7877935	          1.8	           80 
 17	   63.7868592	          1.2	           80 
 18	   63.7872330	          1.2	           80 
 19	   63.7881386	          1.8	           80 
 20	   63.7889466	          1.8	           80 
 21	   63.7898116	          1.2	           80 
 22	   63.7910796	          1.2	           80 
 23	   63.7924471	          1.2	           80 
 24	   63.7931489	          1.2	           80 
 25	   63.7928792	          1.2	           80 
 26	   63.7921000	          1.2	           80 
 27	   63.7914834	          1.2	           80 
 28	   63.7912227	          1.8	           80 
 29	   63.7910782	          1.2	           80 
 30	   63.7907403	          1.2	           80 
 31	   63.7902339	          6.7	           80 
 32	   63.7898773	          1.8	           80 


2013-12-20  14:09:55 -> meas. 15/33 
--------------------------------------

Measurement parameters (Pr/NCY/MCF/MDA/Period) : 
32	80	638003449	900	60	
Mean value:
63.7956780	Mhz
1.49838634	T
Max value:	at probe #:
63.8066757	8
Min value:	at probe #:
63.7866834	17
diff max-min:	ppm of mean value
313.4


	      NMR f. [MHz]	       RMS [Hz]	   Valid cycles

  1	   63.8019863	          1.8	           80 
  2	   63.8027883	          1.2	           80 
  3	   63.8037845	          1.2	           80 
  4	   63.8045967	          1.2	           80 
  5	   63.8051383	          1.8	           80 
  6	   63.8056122	          1.8	           80 
  7	   63.8062041	          1.2	           80 
  8	   63.8066757	          1.8	           80 
  9	   63.8062801	          1.2	           80 
 10	   63.8045214	          3.0	           80 
 11	   63.8017419	          1.8	           80 
 12	   63.7985584	          1.8	           80 
 13	   63.7955568	          1.2	           80 
 14	   63.7926126	          1.2	           80 
 15	   63.7897290	          1.8	           80 
 16	   63.7875335	          1.8	           80 
 17	   63.7866834	          1.2	           80 
 18	   63.7871518	          1.2	           80 
 19	   63.7881453	          1.8	           80 
 20	   63.7890234	          1.8	           80 
 21	   63.7899358	          1.2	           80 
 22	   63.7912253	          1.2	           80 
 23	   63.7926002	          1.8	           80 
 24	   63.7933001	          1.2	           80 
 25	   63.7930267	          1.8	           80 
 26	   63.7922396	          1.2	           80 
 27	   63.7916082	          1.2	           80 
 28	   63.7913321	          1.8	           80 
 29	   63.7911618	          1.2	           80 
 30	   63.7907932	          1.2	           80 
 31	   63.7902622	          1.2	           80 
 32	   63.7898872	          1.8	           80 


2013-12-20  14:10:09 -> meas. 16/33 
--------------------------------------

Measurement parameters (Pr/NCY/MCF/MDA/Period) : 
32	80	638003449	900	60	
Mean value:
63.7956543	Mhz
1.49838578	T
Max value:	at probe #:
63.8063579	8
Min value:	at probe #:
63.7866840	17
diff max-min:	ppm of mean value
308.4


	      NMR f. [MHz]	       RMS [Hz]	   Valid cycles

  1	   63.8019525	          2.4	           80 
  2	   63.8027146	          1.2	           80 
  3	   63.8036695	          1.2	           80 
  4	   63.8044387	          1.2	           80 
  5	   63.8049361	          1.8	           80 
  6	   63.8053688	          1.2	           80 
  7	   63.8059232	          1.2	           80 
  8	   63.8063579	          1.2	           80 
  9	   63.8059414	          1.2	           80 
 10	   63.8041728	          3.0	           80 
 11	   63.8013903	          1.8	           80 
 12	   63.7982247	          1.8	           80 
 13	   63.7952470	          1.2	           80 
 14	   63.7923434	          1.2	           80 
 15	   63.7895255	          1.8	           80 
 16	   63.7874253	          2.4	           80 
 17	   63.7866840	          1.8	           80 
 18	   63.7872625	          1.2	           80 
 19	   63.7883488	          1.8	           80 
 20	   63.7892957	          1.2	           80 
 21	   63.7902450	          1.2	           80 
 22	   63.7915449	          1.2	           80 
 23	   63.7929100	          1.8	           80 
 24	   63.7935866	          1.2	           80 
 25	   63.7932824	          1.2	           80 
 26	   63.7924670	          1.2	           80 
 27	   63.7918031	          1.2	           80 
 28	   63.7914937	          1.8	           80 
 29	   63.7912853	          1.8	           80 
 30	   63.7908780	          1.2	           80 
 31	   63.7903120	          1.8	           80 
 32	   63.7899068	          1.8	           80 


2013-12-20  14:10:23 -> meas. 17/33 
--------------------------------------

Measurement parameters (Pr/NCY/MCF/MDA/Period) : 
32	80	638003449	900	60	
Mean value:
63.7956313	Mhz
1.49838524	T
Max value:	at probe #:
63.8059719	8
Min value:	at probe #:
63.7866637	17
diff max-min:	ppm of mean value
302.7


	      NMR f. [MHz]	       RMS [Hz]	   Valid cycles

  1	   63.8019156	          1.8	           80 
  2	   63.8026291	          1.2	           80 
  3	   63.8035294	          1.2	           80 
  4	   63.8042414	          1.2	           80 
  5	   63.8046810	          1.8	           80 
  6	   63.8050627	          1.2	           80 
  7	   63.8055753	          1.2	           80 
  8	   63.8059719	          1.2	           80 
  9	   63.8055278	          1.2	           80 
 10	   63.8037407	          3.0	           80 
 11	   63.8009558	          1.8	           80 
 12	   63.7978055	          1.8	           80 
 13	   63.7948560	          1.2	           80 
 14	   63.7920029	          1.2	           80 
 15	   63.7892630	          1.8	           80 
 16	   63.7872734	          2.4	           80 
 17	   63.7866637	          1.8	           80 
 18	   63.7873768	          1.2	           80 
 19	   63.7885867	          1.8	           80 
 20	   63.7896295	          1.2	           80 
 21	   63.7906414	          1.2	           80 
 22	   63.7919740	          1.2	           80 
 23	   63.7933384	          1.2	           80 
 24	   63.7939910	          1.2	           80 
 25	   63.7936445	          1.2	           80 
 26	   63.7927811	          1.2	           80 
 27	   63.7920711	          1.2	           80 
 28	   63.7917070	          1.8	           80 
 29	   63.7914488	          1.2	           80 
 30	   63.7909930	          1.2	           80 
 31	   63.7903845	          1.8	           80 
 32	   63.7899400	          1.8	           80 


2013-12-20  14:10:37 -> meas. 18/33 
--------------------------------------

Measurement parameters (Pr/NCY/MCF/MDA/Period) : 
32	80	638003449	900	60	
Mean value:
63.7955943	Mhz
1.49838437	T
Max value:	at probe #:
63.8055828	8
Min value:	at probe #:
63.7865820	17
diff max-min:	ppm of mean value
297.8


	      NMR f. [MHz]	       RMS [Hz]	   Valid cycles

  1	   63.8018830	          1.8	           80 
  2	   63.8025474	          1.2	           80 
  3	   63.8033880	          1.2	           80 
  4	   63.8040379	          1.2	           80 
  5	   63.8044173	          1.8	           80 
  6	   63.8047467	          1.2	           80 
  7	   63.8052200	          1.2	           80 
  8	   63.8055828	          1.2	           80 
  9	   63.8051036	          1.2	           80 
 10	   63.8032889	          3.0	           80 
 11	   63.8004929	          1.8	           80 
 12	   63.7973475	          1.8	           80 
 13	   63.7944288	          0.6	           80 
 14	   63.7916279	          1.2	           80 
 15	   63.7889612	          2.4	           80 
 16	   63.7870731	          2.4	           80 
 17	   63.7865820	          1.2	           80 
 18	   63.7874198	          1.2	           80 
 19	   63.7887532	          1.8	           80 
 20	   63.7898987	          1.2	           80 
 21	   63.7909949	          1.2	           80 
 22	   63.7923870	          1.2	           80 
 23	   63.7937767	          1.2	           80 
 24	   63.7944219	          1.2	           80 
 25	   63.7940391	          1.8	           80 
 26	   63.7931204	          1.2	           80 
 27	   63.7923520	          1.2	           80 
 28	   63.7919345	          1.8	           80 
 29	   63.7916246	          1.2	           80 
 30	   63.7911208	          1.8	           80 
 31	   63.7904669	          1.2	           80 
 32	   63.7899794	          1.8	           80 


2013-12-20  14:10:49 -> meas. 19/33 
--------------------------------------

Measurement parameters (Pr/NCY/MCF/MDA/Period) : 
32	80	638003449	900	60	
Mean value:
63.7955471	Mhz
1.49838326	T
Max value:	at probe #:
63.8051974	8
Min value:	at probe #:
63.7864572	17
diff max-min:	ppm of mean value
293.8


	      NMR f. [MHz]	       RMS [Hz]	   Valid cycles

  1	   63.8018511	          1.8	           80 
  2	   63.8024650	          1.2	           80 
  3	   63.8032454	          1.2	           80 
  4	   63.8038277	          1.2	           80 
  5	   63.8041456	          2.4	           80 
  6	   63.8044265	          1.8	           80 
  7	   63.8048647	          1.2	           80 
  8	   63.8051974	          1.2	           80 
  9	   63.8046875	          1.2	           80 
 10	   63.8028495	          3.6	           80 
 11	   63.8000344	          1.8	           80 
 12	   63.7968964	          1.8	           80 
 13	   63.7940115	          1.2	           80 
 14	   63.7912616	          1.2	           80 
 15	   63.7886619	          1.8	           80 
 16	   63.7868555	          2.4	           80 
 17	   63.7864572	          1.2	           80 
 18	   63.7873971	          1.2	           80 
 19	   63.7888381	          1.8	           80 
 20	   63.7900844	          1.8	           80 
 21	   63.7912758	          1.2	           80 
 22	   63.7927472	          1.2	           80 
 23	   63.7941891	          1.2	           80 
 24	   63.7948460	          1.2	           80 
 25	   63.7944399	          1.2	           80 
 26	   63.7934720	          1.2	           80 
 27	   63.7926458	          1.2	           80 
 28	   63.7921730	          1.8	           80 
 29	   63.7918127	          1.2	           80 
 30	   63.7912603	          1.2	           80 
 31	   63.7905615	          1.8	           80 
 32	   63.7900255	          1.8	           80 


2013-12-20  14:11:05 -> meas. 20/33 
--------------------------------------

Measurement parameters (Pr/NCY/MCF/MDA/Period) : 
32	80	638003449	900	60	
Mean value:
63.7955254	Mhz
1.49838275	T
Max value:	at probe #:
63.8048642	8
Min value:	at probe #:
63.7863877	17
diff max-min:	ppm of mean value
289.6


	      NMR f. [MHz]	       RMS [Hz]	   Valid cycles

  1	   63.8018222	          2.4	           80 
  2	   63.8023888	          1.2	           80 
  3	   63.8031120	          1.2	           80 
  4	   63.8036304	          1.2	           80 
  5	   63.8038918	          1.8	           80 
  6	   63.8041321	          1.2	           80 
  7	   63.8045451	          1.2	           80 
  8	   63.8048642	          1.8	           80 
  9	   63.8043414	          1.2	           80 
 10	   63.8024936	          3.6	           80 
 11	   63.7996809	          2.4	           80 
 12	   63.7965644	          1.8	           80 
 13	   63.7937220	          1.2	           80 
 14	   63.7910237	          1.2	           80 
 15	   63.7884744	          1.8	           80 
 16	   63.7867233	          2.4	           80 
 17	   63.7863877	          1.2	           80 
 18	   63.7873983	          1.2	           80 
 19	   63.7889161	          1.8	           80 
 20	   63.7902405	          1.2	           80 
 21	   63.7915131	          1.2	           80 
 22	   63.7930589	          1.2	           80 
 23	   63.7945549	          1.2	           80 
 24	   63.7952321	          1.8	           80 
 25	   63.7948105	          1.2	           80 
 26	   63.7938039	          1.2	           80 
 27	   63.7929267	          1.2	           80 
 28	   63.7924090	          1.8	           80 
 29	   63.7920026	          1.2	           80 
 30	   63.7914085	          1.2	           80 
 31	   63.7906623	          1.8	           80 
 32	   63.7900777	          1.8	           80 


2013-12-20  14:11:19 -> meas. 21/33 
--------------------------------------

Measurement parameters (Pr/NCY/MCF/MDA/Period) : 
32	80	638003449	900	60	
Mean value:
63.7955876	Mhz
1.49838421	T
Max value:	at probe #:
63.8046264	8
Min value:	at probe #:
63.7865543	17
diff max-min:	ppm of mean value
283.3


	      NMR f. [MHz]	       RMS [Hz]	   Valid cycles

  1	   63.8018000	          1.8	           80 
  2	   63.8023285	          1.2	           80 
  3	   63.8030032	          1.2	           80 
  4	   63.8034694	          1.2	           80 
  5	   63.8036859	          1.8	           80 
  6	   63.8038979	          1.8	           80 
  7	   63.8043023	          1.2	           80 
  8	   63.8046264	          1.2	           80 
  9	   63.8041208	          1.2	           80 
 10	   63.8023006	          3.6	           80 
 11	   63.7995309	          2.4	           80 
 12	   63.7964765	          1.8	           80 
 13	   63.7937035	          1.2	           80 
 14	   63.7910661	          1.2	           80 
 15	   63.7885660	          1.8	           80 
 16	   63.7868530	          2.4	           80 
 17	   63.7865543	          1.2	           80 
 18	   63.7875969	          1.2	           80 
 19	   63.7891473	          1.8	           80 
 20	   63.7904993	          1.2	           80 
 21	   63.7918032	          1.2	           80 
 22	   63.7933766	          1.2	           80 
 23	   63.7948911	          1.8	           80 
 24	   63.7955671	          1.2	           80 
 25	   63.7951246	          1.2	           80 
 26	   63.7940873	          1.2	           80 
 27	   63.7931750	          1.2	           80 
 28	   63.7926217	          1.8	           80 
 29	   63.7921809	          1.2	           80 
 30	   63.7915499	          1.2	           80 
 31	   63.7907637	          1.8	           80 
 32	   63.7901318	          2.4	           80 


2013-12-20  14:11:34 -> meas. 22/33 
--------------------------------------

Measurement parameters (Pr/NCY/MCF/MDA/Period) : 
32	80	638003449	900	60	
Mean value:
63.7957907	Mhz
1.49838898	T
Max value:	at probe #:
63.8044905	8
Min value:	at probe #:
63.7871026	17
diff max-min:	ppm of mean value
272.6


	      NMR f. [MHz]	       RMS [Hz]	   Valid cycles

  1	   63.8017828	          1.8	           80 
  2	   63.8022794	          1.2	           80 
  3	   63.8029141	          1.2	           80 
  4	   63.8033360	          1.2	           80 
  5	   63.8035181	          1.8	           80 
  6	   63.8037159	          1.2	           80 
  7	   63.8041308	          1.2	           80 
  8	   63.8044905	          1.2	           80 
  9	   63.8040415	          1.2	           80 
 10	   63.8022969	          3.6	           80 
 11	   63.7996287	          1.8	           80 
 12	   63.7966991	          1.8	           80 
 13	   63.7940465	          1.2	           80 
 14	   63.7915075	          1.2	           80 
 15	   63.7890694	          1.8	           80 
 16	   63.7873853	          2.4	           80 
 17	   63.7871026	          1.2	           80 
 18	   63.7881458	          1.2	           80 
 19	   63.7896832	          1.8	           80 
 20	   63.7910027	          1.2	           80 
 21	   63.7922703	          1.2	           80 
 22	   63.7938057	          1.2	           80 
 23	   63.7952888	          1.8	           80 
 24	   63.7959297	          1.2	           80 
 25	   63.7954492	          1.2	           80 
 26	   63.7943743	          1.2	           80 
 27	   63.7934264	          1.2	           80 
 28	   63.7928430	          1.8	           80 
 29	   63.7923714	          1.2	           80 
 30	   63.7917054	          1.2	           80 
 31	   63.7908738	          1.2	           80 
 32	   63.7901890	          1.8	           80 


2013-12-20  14:11:48 -> meas. 23/33 
--------------------------------------

Measurement parameters (Pr/NCY/MCF/MDA/Period) : 
32	80	638003449	900	60	
Mean value:
63.7961372	Mhz
1.49839712	T
Max value:	at probe #:
63.8044961	8
Min value:	at probe #:
63.7880148	17
diff max-min:	ppm of mean value
258.3


	      NMR f. [MHz]	       RMS [Hz]	   Valid cycles

  1	   63.8017730	          1.8	           80 
  2	   63.8022505	          1.2	           80 
  3	   63.8028600	          1.8	           80 
  4	   63.8032561	          1.2	           80 
  5	   63.8034240	          1.8	           80 
  6	   63.8036274	          1.8	           80 
  7	   63.8040749	          1.2	           80 
  8	   63.8044961	          1.2	           80 
  9	   63.8041349	          1.2	           80 
 10	   63.8025059	          3.6	           80 
 11	   63.7999803	          1.8	           80 
 12	   63.7972178	          1.8	           80 
 13	   63.7947245	          1.2	           80 
 14	   63.7923084	          1.2	           80 
 15	   63.7899459	          1.8	           80 
 16	   63.7882932	          1.8	           80 
 17	   63.7880148	          1.2	           80 
 18	   63.7890321	          1.2	           80 
 19	   63.7905118	          1.8	           80 
 20	   63.7917507	          1.2	           80 
 21	   63.7929182	          1.2	           80 
 22	   63.7943558	          1.2	           80 
 23	   63.7957522	          1.2	           80 
 24	   63.7963225	          1.2	           80 
 25	   63.7957799	          1.2	           80 
 26	   63.7946626	          1.2	           80 
 27	   63.7936827	          1.2	           80 
 28	   63.7930679	          1.8	           80 
 29	   63.7925675	          1.8	           80 
 30	   63.7918652	          1.2	           80 
 31	   63.7909875	          1.8	           80 
 32	   63.7902467	          1.8	           80 


2013-12-20  14:12:01 -> meas. 24/33 
--------------------------------------

Measurement parameters (Pr/NCY/MCF/MDA/Period) : 
32	80	638003449	900	60	
Mean value:
63.7965826	Mhz
1.49840758	T
Max value:	at probe #:
63.8046602	8
Min value:	at probe #:
63.7891083	17
diff max-min:	ppm of mean value
243.8


	      NMR f. [MHz]	       RMS [Hz]	   Valid cycles

  1	   63.8017705	          1.8	           80 
  2	   63.8022431	          1.2	           80 
  3	   63.8028477	          1.8	           80 
  4	   63.8032413	          1.8	           80 
  5	   63.8034203	          1.8	           80 
  6	   63.8036551	          1.8	           80 
  7	   63.8041572	          1.2	           80 
  8	   63.8046602	          1.8	           80 
  9	   63.8044035	          1.2	           80 
 10	   63.8029005	          3.6	           80 
 11	   63.8005230	          1.8	           80 
 12	   63.7979278	          1.8	           80 
 13	   63.7955881	          1.2	           80 
 14	   63.7932919	          1.2	           80 
 15	   63.7910001	          1.8	           80 
 16	   63.7893873	          1.8	           80 
 17	   63.7891083	          1.2	           80 
 18	   63.7900906	          1.2	           80 
 19	   63.7914947	          1.8	           80 
 20	   63.7926310	          1.8	           80 
 21	   63.7936736	          1.2	           80 
 22	   63.7949920	          1.2	           80 
 23	   63.7962845	          1.8	           80 
 24	   63.7967650	          1.2	           80 
 25	   63.7961481	          1.2	           80 
 26	   63.7949779	          1.8	           80 
 27	   63.7939569	          1.2	           80 
 28	   63.7933046	          1.8	           80 
 29	   63.7927697	          1.8	           80 
 30	   63.7920262	          1.2	           80 
 31	   63.7911000	          1.8	           80 
 32	   63.7903015	          1.8	           80 


2013-12-20  14:12:18 -> meas. 25/33 
--------------------------------------

Measurement parameters (Pr/NCY/MCF/MDA/Period) : 
32	80	638003449	900	60	
Mean value:
63.7971112	Mhz
1.49842000	T
Max value:	at probe #:
63.8050087	8
Min value:	at probe #:
63.7902712	17
diff max-min:	ppm of mean value
231.0


	      NMR f. [MHz]	       RMS [Hz]	   Valid cycles

  1	   63.8017779	          1.8	           80 
  2	   63.8022603	          1.2	           80 
  3	   63.8028790	          1.2	           80 
  4	   63.8032966	          1.2	           80 
  5	   63.8035156	          2.4	           80 
  6	   63.8038130	          1.2	           80 
  7	   63.8044000	          1.2	           80 
  8	   63.8050087	          1.2	           80 
  9	   63.8048694	          1.2	           80 
 10	   63.8034832	          3.0	           80 
 11	   63.8012373	          1.8	           80 
 12	   63.7987828	          1.8	           80 
 13	   63.7965753	          1.2	           80 
 14	   63.7943780	          1.2	           80 
 15	   63.7921477	          1.8	           80 
 16	   63.7905527	          1.8	           80 
 17	   63.7902712	          1.2	           80 
 18	   63.7912148	          1.2	           80 
 19	   63.7925501	          2.4	           80 
 20	   63.7935788	          1.8	           80 
 21	   63.7944997	          1.2	           80 
 22	   63.7957026	          1.2	           80 
 23	   63.7969017	          1.8	           80 
 24	   63.7972949	          1.2	           80 
 25	   63.7966017	          1.2	           80 
 26	   63.7953621	          1.2	           80 
 27	   63.7942759	          1.2	           80 
 28	   63.7935726	          2.4	           80 
 29	   63.7929892	          1.8	           80 
 30	   63.7921965	          1.8	           80 
 31	   63.7912137	          1.8	           80 
 32	   63.7903555	          2.4	           80 


2013-12-20  14:12:30 -> meas. 26/33 
--------------------------------------

Measurement parameters (Pr/NCY/MCF/MDA/Period) : 
32	80	638003449	900	60	
Mean value:
63.7977042	Mhz
1.49843392	T
Max value:	at probe #:
63.8055238	8
Min value:	at probe #:
63.7904047	32
diff max-min:	ppm of mean value
237.0


	      NMR f. [MHz]	       RMS [Hz]	   Valid cycles

  1	   63.8017908	          1.8	           80 
  2	   63.8022990	          1.2	           80 
  3	   63.8029522	          1.2	           80 
  4	   63.8034190	          1.8	           80 
  5	   63.8037068	          1.8	           80 
  6	   63.8040958	          1.2	           80 
  7	   63.8047922	          1.2	           80 
  8	   63.8055238	          1.2	           80 
  9	   63.8055087	          1.2	           80 
 10	   63.8042392	          2.4	           80 
 11	   63.8021101	          2.4	           80 
 12	   63.7997663	          1.2	           80 
 13	   63.7976614	          1.2	           80 
 14	   63.7955409	          1.2	           80 
 15	   63.7933500	          1.8	           80 
 16	   63.7917606	          2.4	           80 
 17	   63.7914533	          1.2	           80 
 18	   63.7923501	          1.2	           80 
 19	   63.7936049	          1.8	           80 
 20	   63.7945389	          1.2	           80 
 21	   63.7953554	          1.2	           80 
 22	   63.7964660	          1.2	           80 
 23	   63.7975870	          1.8	           80 
 24	   63.7979016	          1.2	           80 
 25	   63.7971278	          1.8	           80 
 26	   63.7958065	          1.2	           80 
 27	   63.7946447	          1.2	           80 
 28	   63.7938682	          1.8	           80 
 29	   63.7932178	          1.2	           80 
 30	   63.7923655	          1.8	           80 
 31	   63.7913243	          1.2	           80 
 32	   63.7904047	          1.8	           80 


2013-12-20  14:12:48 -> meas. 27/33 
--------------------------------------

Measurement parameters (Pr/NCY/MCF/MDA/Period) : 
32	80	638003449	900	60	
Mean value:
63.7983307	Mhz
1.49844864	T
Max value:	at probe #:
63.8062654	9
Min value:	at probe #:
63.7904465	32
diff max-min:	ppm of mean value
248.0


	      NMR f. [MHz]	       RMS [Hz]	   Valid cycles

  1	   63.8018117	          2.4	           80 
  2	   63.8023537	          1.2	           80 
  3	   63.8030567	          1.2	           80 
  4	   63.8035923	          1.8	           80 
  5	   63.8039686	          1.8	           80 
  6	   63.8044677	          1.8	           80 
  7	   63.8052888	          1.2	           80 
  8	   63.8061483	          1.2	           80 
  9	   63.8062654	          1.2	           80 
 10	   63.8051096	          3.0	           80 
 11	   63.8030850	          1.8	           80 
 12	   63.8008340	          1.8	           80 
 13	   63.7988170	          1.2	           80 
 14	   63.7967586	          1.2	           80 
 15	   63.7945892	          1.8	           80 
 16	   63.7929801	          2.4	           80 
 17	   63.7926205	          1.8	           80 
 18	   63.7934424	          1.2	           80 
 19	   63.7946135	          1.8	           80 
 20	   63.7954615	          1.8	           80 
 21	   63.7962005	          1.2	           80 
 22	   63.7972472	          1.2	           80 
 23	   63.7983062	          1.2	           80 
 24	   63.7985488	          1.2	           80 
 25	   63.7976933	          1.8	           80 
 26	   63.7962835	          1.2	           80 
 27	   63.7950350	          1.2	           80 
 28	   63.7941706	          1.8	           80 
 29	   63.7934428	          1.2	           80 
 30	   63.7925223	          1.8	           80 
 31	   63.7914196	          1.8	           80 
 32	   63.7904465	          2.4	           80 


2013-12-20  14:13:03 -> meas. 28/33 
--------------------------------------

Measurement parameters (Pr/NCY/MCF/MDA/Period) : 
32	80	638003449	900	60	
Mean value:
63.7990392	Mhz
1.49846528	T
Max value:	at probe #:
63.8071652	9
Min value:	at probe #:
63.7904840	32
diff max-min:	ppm of mean value
261.5


	      NMR f. [MHz]	       RMS [Hz]	   Valid cycles

  1	   63.8018394	          1.8	           80 
  2	   63.8024293	          1.2	           80 
  3	   63.8031938	          1.8	           80 
  4	   63.8038111	          1.2	           80 
  5	   63.8042938	          1.8	           80 
  6	   63.8049207	          1.8	           80 
  7	   63.8058826	          1.2	           80 
  8	   63.8069031	          2.4	           80 
  9	   63.8071652	          1.8	           80 
 10	   63.8061257	          3.0	           80 
 11	   63.8042203	          1.8	           80 
 12	   63.8020830	          2.4	           80 
 13	   63.8001557	          1.2	           80 
 14	   63.7981601	          1.2	           80 
 15	   63.7959992	          1.8	           80 
 16	   63.7943508	          1.8	           80 
 17	   63.7939107	          1.2	           80 
 18	   63.7946398	          1.2	           80 
 19	   63.7957083	          1.8	           80 
 20	   63.7964647	          1.2	           80 
 21	   63.7971250	          1.2	           80 
 22	   63.7981029	          1.2	           80 
 23	   63.7991004	          1.8	           80 
 24	   63.7992674	          1.2	           80 
 25	   63.7983203	          1.8	           80 
 26	   63.7968103	          1.2	           80 
 27	   63.7954499	          1.2	           80 
 28	   63.7944835	          1.8	           80 
 29	   63.7936684	          1.2	           80 
 30	   63.7926753	          1.8	           80 
 31	   63.7915106	          1.8	           80 
 32	   63.7904840	          1.8	           80 


2013-12-20  14:13:18 -> meas. 29/33 
--------------------------------------

Measurement parameters (Pr/NCY/MCF/MDA/Period) : 
32	80	638003449	900	60	
Mean value:
63.7997749	Mhz
1.49848256	T
Max value:	at probe #:
63.8080381	9
Min value:	at probe #:
63.7905068	32
diff max-min:	ppm of mean value
274.8


	      NMR f. [MHz]	       RMS [Hz]	   Valid cycles

  1	   63.8018713	          1.8	           80 
  2	   63.8025099	          1.2	           80 
  3	   63.8033370	          1.2	           80 
  4	   63.8040361	          1.2	           80 
  5	   63.8046171	          1.8	           80 
  6	   63.8053633	          1.8	           80 
  7	   63.8064592	          1.8	           80 
  8	   63.8076241	          2.4	           80 
  9	   63.8080381	          1.8	           80 
 10	   63.8071589	          3.6	           80 
 11	   63.8053814	          2.4	           80 
 12	   63.8033879	          1.8	           80 
 13	   63.8015824	          1.8	           80 
 14	   63.7996802	          1.2	           80 
 15	   63.7975636	          1.8	           80 
 16	   63.7958875	          1.8	           80 
 17	   63.7953822	          1.2	           80 
 18	   63.7960037	          1.2	           80 
 19	   63.7969487	          2.4	           80 
 20	   63.7975785	          1.8	           80 
 21	   63.7981171	          1.2	           80 
 22	   63.7989868	          1.2	           80 
 23	   63.7998835	          1.8	           80 
 24	   63.7999448	          1.2	           80 
 25	   63.7988907	          1.8	           80 
 26	   63.7972762	          1.2	           80 
 27	   63.7958089	          0.6	           80 
 28	   63.7947491	          1.8	           80 
 29	   63.7938528	          1.2	           80 
 30	   63.7927933	          1.8	           80 
 31	   63.7915745	          1.2	           80 
 32	   63.7905068	          1.8	           80 


2013-12-20  14:13:33 -> meas. 30/33 
--------------------------------------

Measurement parameters (Pr/NCY/MCF/MDA/Period) : 
32	80	638003449	900	60	
Mean value:
63.8005659	Mhz
1.49850114	T
Max value:	at probe #:
63.8088814	9
Min value:	at probe #:
63.7905234	32
diff max-min:	ppm of mean value
287.7


	      NMR f. [MHz]	       RMS [Hz]	   Valid cycles

  1	   63.8019058	          1.8	           80 
  2	   63.8025959	          1.2	           80 
  3	   63.8034876	          1.2	           80 
  4	   63.8042629	          1.2	           80 
  5	   63.8049337	          1.8	           80 
  6	   63.8057800	          1.2	           80 
  7	   63.8070038	          3.0	           80 
  8	   63.8083021	          1.8	           80 
  9	   63.8088814	          1.2	           80 
 10	   63.8081824	          3.0	           80 
 11	   63.8065849	          2.4	           80 
 12	   63.8047894	          1.8	           80 
 13	   63.8031701	          1.2	           80 
 14	   63.8014086	          1.2	           80 
 15	   63.7993812	          3.0	           80 
 16	   63.7977198	          1.8	           80 
 17	   63.7971507	          1.2	           80 
 18	   63.7976572	          1.2	           80 
 19	   63.7984423	          1.8	           80 
 20	   63.7988865	          1.8	           80 
 21	   63.7992346	          1.2	           80 
 22	   63.7999291	          1.2	           80 
 23	   63.8006610	          1.2	           80 
 24	   63.8005797	          1.2	           80 
 25	   63.7994040	          1.2	           80 
 26	   63.7976788	          1.8	           80 
 27	   63.7961095	          1.2	           80 
 28	   63.7949636	          1.8	           80 
 29	   63.7939972	          1.2	           80 
 30	   63.7928825	          1.2	           80 
 31	   63.7916206	          1.8	           80 
 32	   63.7905234	          1.8	           80 


2013-12-20  14:17:16 -> meas. 31/33 
--------------------------------------

Measurement parameters (Pr/NCY/MCF/MDA/Period) : 
32	80	638003449	900	60	
Mean value:
63.8012554	Mhz
1.49851733	T
Max value:	at probe #:
63.8095323	9
Min value:	at probe #:
63.7905147	32
diff max-min:	ppm of mean value
298.1


	      NMR f. [MHz]	       RMS [Hz]	   Valid cycles

  1	   63.8019377	          1.8	           80 
  2	   63.8026721	          1.2	           80 
  3	   63.8036166	          1.2	           80 
  4	   63.8044510	          1.2	           80 
  5	   63.8051869	          2.4	           80 
  6	   63.8061052	          1.8	           80 
  7	   63.8074162	          2.4	           80 
  8	   63.8088135	          2.4	           80 
  9	   63.8095323	          1.8	           80 
 10	   63.8090023	          3.0	           80 
 11	   63.8075979	          2.4	           80 
 12	   63.8060021	          1.8	           80 
 13	   63.8045900	          1.8	           80 
 14	   63.8030092	          1.2	           80 
 15	   63.8010906	          1.8	           80 
 16	   63.7994802	          2.4	           80 
 17	   63.7988791	          1.2	           80 
 18	   63.7992769	          1.2	           80 
 19	   63.7998917	          1.8	           80 
 20	   63.8001269	          1.8	           80 
 21	   63.8002568	          1.2	           80 
 22	   63.8007453	          1.2	           80 
 23	   63.8012868	          1.2	           80 
 24	   63.8010469	          1.2	           80 
 25	   63.7997500	          1.2	           80 
 26	   63.7979308	          1.8	           80 
 27	   63.7962847	          0.6	           80 
 28	   63.7950785	          1.8	           80 
 29	   63.7940636	          1.2	           80 
 30	   63.7929120	          1.2	           80 
 31	   63.7916249	          1.8	           80 
 32	   63.7905147	          2.4	           80 


2013-12-20  14:14:03 -> meas. 32/33 
--------------------------------------

Measurement parameters (Pr/NCY/MCF/MDA/Period) : 
32	80	638003449	900	60	
Mean value:
63.8017953	Mhz
1.49853001	T
Max value:	at probe #:
63.8100155	9
Min value:	at probe #:
63.7905111	32
diff max-min:	ppm of mean value
305.7


	      NMR f. [MHz]	       RMS [Hz]	   Valid cycles

  1	   63.8019728	          1.8	           80 
  2	   63.8027508	          1.2	           80 
  3	   63.8037402	          1.2	           80 
  4	   63.8046194	          1.8	           80 
  5	   63.8053983	          2.4	           80 
  6	   63.8063621	          1.8	           80 
  7	   63.8077266	          1.8	           80 
  8	   63.8091922	          1.8	           80 
  9	   63.8100155	          1.2	           80 
 10	   63.8096225	          3.6	           80 
 11	   63.8083706	          2.4	           80 
 12	   63.8069616	          2.4	           80 
 13	   63.8057265	          1.2	           80 
 14	   63.8043154	          1.2	           80 
 15	   63.8025283	          2.4	           80 
 16	   63.8009634	          2.4	           80 
 17	   63.8003426	          1.2	           80 
 18	   63.8006372	          1.2	           80 
 19	   63.8010848	          1.8	           80 
 20	   63.8011208	          1.8	           80 
 21	   63.8010411	          1.2	           80 
 22	   63.8013360	          1.2	           80 
 23	   63.8017060	          1.2	           80 
 24	   63.8013321	          1.2	           80 
 25	   63.7999430	          1.8	           80 
 26	   63.7980568	          1.2	           80 
 27	   63.7963584	          1.2	           80 
 28	   63.7951148	          1.8	           80 
 29	   63.7940735	          1.2	           80 
 30	   63.7929083	          1.2	           80 
 31	   63.7916163	          1.8	           80 
 32	   63.7905111	          1.8	           80 


2013-12-20  14:14:23 -> meas. 33/33 
--------------------------------------

Measurement parameters (Pr/NCY/MCF/MDA/Period) : 
32	80	638003449	900	60	
Mean value:
63.8020439	Mhz
1.49853585	T
Max value:	at probe #:
63.8102484	9
Min value:	at probe #:
63.7904840	32
diff max-min:	ppm of mean value
309.8


	      NMR f. [MHz]	       RMS [Hz]	   Valid cycles

  1	   63.8020047	          2.4	           80 
  2	   63.8028178	          1.2	           80 
  3	   63.8038385	          1.2	           80 
  4	   63.8047467	          1.2	           80 
  5	   63.8055459	          1.8	           80 
  6	   63.8065268	          1.8	           80 
  7	   63.8079030	          1.8	           80 
  8	   63.8093882	          1.8	           80 
  9	   63.8102484	          1.2	           80 
 10	   63.8099170	          3.6	           80 
 11	   63.8087400	          2.4	           80 
 12	   63.8074294	          1.8	           80 
 13	   63.8063012	          1.2	           80 
 14	   63.8050032	          1.2	           80 
 15	   63.8033095	          1.8	           80 
 16	   63.8017963	          1.8	           80 
 17	   63.8011534	          1.2	           80 
 18	   63.8013692	          1.2	           80 
 19	   63.8016927	          1.8	           80 
 20	   63.8015781	          1.8	           80 
 21	   63.8013521	          1.2	           80 
 22	   63.8015241	          1.2	           80 
 23	   63.8017883	          1.2	           80 
 24	   63.8013394	          1.2	           80 
 25	   63.7999056	          1.8	           80 
 26	   63.7979935	          1.8	           80 
 27	   63.7962797	          1.2	           80 
 28	   63.7950312	          1.8	           80 
 29	   63.7939942	          1.2	           80 
 30	   63.7928394	          1.8	           80 
 31	   63.7915647	          2.4	           80 
 32	   63.7904840	          2.4	           80 
